T(K)  p(mbar)  mu(amu)  mean cp(kJ/kg/K)
       75.000000    0.0010000000       2.3460327       12.902114
       75.000000    0.0030000000       2.3460326       12.902114
       75.000000     0.010000000       2.3460326       12.902114
       75.000000     0.030000000       2.3460326       12.902114
       75.000000      0.10000000       2.3460326       12.902114
       75.000000      0.30000000       2.3460326       12.902114
       75.000000       1.0000000       2.3460326       12.902114
       75.000000       3.0000000       2.3460326       12.902114
       75.000000       10.000000       2.3460326       12.902114
       75.000000       30.000000       2.3460326       12.902114
       75.000000       100.00000       2.3460326       12.902114
       75.000000       300.00000       2.3460326       12.902114
       75.000000       1000.0000       2.3460326       12.902114
       75.000000       3000.0000       2.3460326       12.902114
       75.000000       10000.000       2.3460326       12.902114
       100.00000    0.0010000000       2.3483698       12.418455
       100.00000    0.0030000000       2.3483698       12.418455
       100.00000     0.010000000       2.3478158       12.418455
       100.00000     0.030000000       2.3466270       12.418455
       100.00000      0.10000000       2.3462109       12.418455
       100.00000      0.30000000       2.3460920       12.418455
       100.00000       1.0000000       2.3460504       12.418455
       100.00000       3.0000000       2.3460385       12.418455
       100.00000       10.000000       2.3460344       12.418455
       100.00000       30.000000       2.3460332       12.418455
       100.00000       100.00000       2.3460327       12.418455
       100.00000       300.00000       2.3460326       12.418455
       100.00000       1000.0000       2.3460326       12.418455
       100.00000       3000.0000       2.3460326       12.418455
       100.00000       10000.000       2.3460326       12.418455
       100.00000       30000.000       2.3460326       12.418455
       110.00000    0.0010000000       2.3483700       12.358075
       110.00000    0.0030000000       2.3483699       12.358075
       110.00000     0.010000000       2.3483699       12.358075
       110.00000     0.030000000       2.3483698       12.358075
       110.00000      0.10000000       2.3483698       12.358075
       110.00000      0.30000000       2.3476836       12.358075
       110.00000       1.0000000       2.3465279       12.358075
       110.00000       3.0000000       2.3461977       12.358075
       110.00000       10.000000       2.3460821       12.358075
       110.00000       30.000000       2.3460491       12.358075
       110.00000       100.00000       2.3460375       12.358075
       110.00000       300.00000       2.3460342       12.358075
       110.00000       1000.0000       2.3460331       12.358075
       110.00000       3000.0000       2.3460327       12.358075
       110.00000       10000.000       2.3460326       12.358075
       110.00000       30000.000       2.3460326       12.358075
       110.00000       100000.00       2.3460326       12.358075
       120.00000    0.0010000000       2.3483808       12.359483
       120.00000    0.0030000000       2.3483735       12.359483
       120.00000     0.010000000       2.3483709       12.359483
       120.00000     0.030000000       2.3483702       12.359483
       120.00000      0.10000000       2.3483699       12.359483
       120.00000      0.30000000       2.3483699       12.359483
       120.00000       1.0000000       2.3483699       12.359483
       120.00000       3.0000000       2.3483698       12.359483
       120.00000       10.000000       2.3468231       12.359483
       120.00000       30.000000       2.3462961       12.359483
       120.00000       100.00000       2.3461116       12.359483
       120.00000       300.00000       2.3460589       12.359483
       120.00000       1000.0000       2.3460405       12.359483
       120.00000       3000.0000       2.3460352       12.359483
       120.00000       10000.000       2.3460334       12.359483
       120.00000       30000.000       2.3460328       12.359483
       120.00000       100000.00       2.3460327       12.359483
       130.00000    0.0010000000       2.3487560       12.413164
       130.00000    0.0030000000       2.3484986       12.413171
       130.00000     0.010000000       2.3484085       12.413174
       130.00000     0.030000000       2.3483827       12.413174
       130.00000      0.10000000       2.3483737       12.413174
       130.00000      0.30000000       2.3483711       12.413175
       130.00000       1.0000000       2.3483702       12.413175
       130.00000       3.0000000       2.3483700       12.413175
       130.00000       10.000000       2.3483699       12.413175
       130.00000       30.000000       2.3483699       12.413175
       130.00000       100.00000       2.3468564       12.413175
       130.00000       300.00000       2.3463072       12.413175
       130.00000       1000.0000       2.3461150       12.413175
       130.00000       3000.0000       2.3460600       12.413175
       130.00000       10000.000       2.3460408       12.413175
       130.00000       30000.000       2.3460353       12.413175
       130.00000       100000.00       2.3460334       12.413175
       140.00000    0.0010000000       2.3492873       12.509318
       140.00000    0.0030000000       2.3492528       12.509534
       140.00000     0.010000000       2.3491872       12.509610
       140.00000     0.030000000       2.3486423       12.509632
       140.00000      0.10000000       2.3484516       12.509639
       140.00000      0.30000000       2.3483971       12.509641
       140.00000       1.0000000       2.3483780       12.509642
       140.00000       3.0000000       2.3483726       12.509642
       140.00000       10.000000       2.3483707       12.509642
       140.00000       30.000000       2.3483701       12.509642
       140.00000       100.00000       2.3483699       12.509642
       140.00000       300.00000       2.3480802       12.509642
       140.00000       1000.0000       2.3466469       12.509642
       140.00000       3000.0000       2.3462373       12.509642
       140.00000       10000.000       2.3460940       12.509642
       140.00000       30000.000       2.3460530       12.509642
       140.00000       100000.00       2.3460387       12.509642
       150.00000    0.0010000000       2.3502153       12.633173
       150.00000    0.0030000000       2.3495621       12.637311
       150.00000     0.010000000       2.3493335       12.638760
       150.00000     0.030000000       2.3492682       12.639174
       150.00000      0.10000000       2.3492453       12.639318
       150.00000      0.30000000       2.3487539       12.639360
       150.00000       1.0000000       2.3484851       12.639374
       150.00000       3.0000000       2.3484082       12.639379
       150.00000       10.000000       2.3483814       12.639380
       150.00000       30.000000       2.3483737       12.639380
       150.00000       100.00000       2.3483710       12.639381
       150.00000       300.00000       2.3483702       12.639381
       150.00000       1000.0000       2.3483700       12.639381
       150.00000       3000.0000       2.3472006       12.639381
       150.00000       10000.000       2.3463830       12.639381
       150.00000       30000.000       2.3461494       12.639381
       150.00000       100000.00       2.3460676       12.639381
       160.00000    0.0010000000       2.3621066       12.711005
       160.00000    0.0030000000       2.3535523       12.765456
       160.00000     0.010000000       2.3505385       12.784641
       160.00000     0.030000000       2.3496832       12.790136
       160.00000      0.10000000       2.3493638       12.792058
       160.00000      0.30000000       2.3492783       12.792608
       160.00000       1.0000000       2.3492484       12.792801
       160.00000       3.0000000       2.3487591       12.792856
       160.00000       10.000000       2.3484866       12.792875
       160.00000       30.000000       2.3484088       12.792881
       160.00000       100.00000       2.3483815       12.792882
       160.00000       300.00000       2.3483737       12.792883
       160.00000       1000.0000       2.3483710       12.792883
       160.00000       3000.0000       2.3483702       12.792883
       160.00000       10000.000       2.3476405       12.792883
       160.00000       30000.000       2.3465685       12.792883
       160.00000       100000.00       2.3461934       12.792883
       170.00000    0.0010000000       2.3640358       12.865113
       170.00000    0.0030000000       2.3640358       12.865113
       170.00000     0.010000000       2.3616916       12.880175
       170.00000     0.030000000       2.3534142       12.933693
       170.00000      0.10000000       2.3505170       12.952548
       170.00000      0.30000000       2.3496894       12.957946
       170.00000       1.0000000       2.3493797       12.959836
       170.00000       3.0000000       2.3492769       12.960374
       170.00000       10.000000       2.3492479       12.960563
       170.00000       30.000000       2.3486704       12.960617
       170.00000       100.00000       2.3484600       12.960636
       170.00000       300.00000       2.3483999       12.960642
       170.00000       1000.0000       2.3483789       12.960644
       170.00000       3000.0000       2.3483728       12.960644
       170.00000       10000.000       2.3483707       12.960644
       170.00000       30000.000       2.3480885       12.960644
       170.00000       100000.00       2.3466493       12.960644
       180.00000    0.0010000000       2.3640156       13.036136
       180.00000    0.0030000000       2.3640156       13.036136
       180.00000     0.010000000       2.3640156       13.036136
       180.00000     0.030000000       2.3640156       13.036136
       180.00000      0.10000000       2.3585919       13.071592
       180.00000      0.30000000       2.3523675       13.112562
       180.00000       1.0000000       2.3501888       13.126974
       180.00000       3.0000000       2.3495464       13.131096
       180.00000       10.000000       2.3493287       13.132540
       180.00000       30.000000       2.3492465       13.132951
       180.00000       100.00000       2.3488846       13.133094
       180.00000       300.00000       2.3485145       13.133136
       180.00000       1000.0000       2.3483850       13.133150
       180.00000       3000.0000       2.3483480       13.133154
       180.00000       10000.000       2.3483351       13.133156
       180.00000       30000.000       2.3483314       13.133156
       180.00000       100000.00       2.3480298       13.133156
       190.00000    0.0010000000       2.3639755       13.202442
       190.00000    0.0030000000       2.3639755       13.202442
       190.00000     0.010000000       2.3639753       13.202444
       190.00000     0.030000000       2.3639753       13.202444
       190.00000      0.10000000       2.3639755       13.202442
       190.00000      0.30000000       2.3639753       13.202444
       190.00000       1.0000000       2.3548925       13.262838
       190.00000       3.0000000       2.3511075       13.288197
       190.00000       10.000000       2.3497626       13.297098
       190.00000       30.000000       2.3493845       13.299643
       190.00000       100.00000       2.3492318       13.300533
       190.00000       300.00000       2.3491941       13.300787
       190.00000       1000.0000       2.3485917       13.300878
       190.00000       3000.0000       2.3484035       13.300905
       190.00000       10000.000       2.3483376       13.300912
       190.00000       30000.000       2.3483188       13.300914
       190.00000       100000.00       2.3483122       13.300915
       200.00000    0.0010000000       2.3639756       13.354618
       200.00000    0.0030000000       2.3639753       13.354619
       200.00000     0.010000000       2.3639753       13.354619
       200.00000     0.030000000       2.3639756       13.354618
       200.00000      0.10000000       2.3639755       13.354618
       200.00000      0.30000000       2.3639753       13.354620
       200.00000       1.0000000       2.3639756       13.354620
       200.00000       3.0000000       2.3588226       13.389267
       200.00000       10.000000       2.3520973       13.434797
       200.00000       30.000000       2.3501558       13.447873
       200.00000       100.00000       2.3494633       13.452452
       200.00000       300.00000       2.3492713       13.453761
       200.00000       1000.0000       2.3492039       13.454222
       200.00000       3000.0000       2.3487165       13.454362
       200.00000       10000.000       2.3484315       13.454399
       200.00000       30000.000       2.3483501       13.454410
       200.00000       100000.00       2.3483216       13.454413
       210.00000    0.0010000000       2.3639752       13.485722
       210.00000    0.0030000000       2.3639754       13.485724
       210.00000     0.010000000       2.3639753       13.485725
       210.00000     0.030000000       2.3639755       13.485724
       210.00000      0.10000000       2.3639753       13.485725
       210.00000      0.30000000       2.3639755       13.485724
       210.00000       1.0000000       2.3639753       13.485727
       210.00000       3.0000000       2.3639753       13.485732
       210.00000       10.000000       2.3617499       13.500845
       210.00000       30.000000       2.3533733       13.557933
       210.00000       100.00000       2.3504285       13.578034
       210.00000       300.00000       2.3495931       13.583792
       210.00000       1000.0000       2.3493004       13.585815
       210.00000       3000.0000       2.3492168       13.586428
       210.00000       10000.000       2.3487692       13.586593
       210.00000       30000.000       2.3484626       13.586639
       210.00000       100000.00       2.3483553       13.586655
       220.00000    0.0010000000       2.3639743       13.598764
       220.00000    0.0030000000       2.3639753       13.598789
       220.00000     0.010000000       2.3639753       13.598792
       220.00000     0.030000000       2.3639755       13.598791
       220.00000      0.10000000       2.3639753       13.598793
       220.00000      0.30000000       2.3639755       13.598792
       220.00000       1.0000000       2.3639753       13.598795
       220.00000       3.0000000       2.3639753       13.598800
       220.00000       10.000000       2.3639755       13.598807
       220.00000       30.000000       2.3639559       13.598860
       220.00000       100.00000       2.3539444       13.667633
       220.00000       300.00000       2.3507650       13.689698
       220.00000       1000.0000       2.3496520       13.697462
       220.00000       3000.0000       2.3493340       13.699814
       220.00000       10000.000       2.3492227       13.700447
       220.00000       30000.000       2.3488212       13.700625
       220.00000       100000.00       2.3484629       13.700687
       230.00000    0.0010000000       2.3639480       13.698963
       230.00000    0.0030000000       2.3639744       13.699177
       230.00000     0.010000000       2.3639753       13.699201
       230.00000     0.030000000       2.3639754       13.699203
       230.00000      0.10000000       2.3639753       13.699203
       230.00000      0.30000000       2.3639755       13.699203
       230.00000       1.0000000       2.3639753       13.699205
       230.00000       3.0000000       2.3639753       13.699211
       230.00000       10.000000       2.3639755       13.699217
       230.00000       30.000000       2.3639557       13.699272
       230.00000       100.00000       2.3639359       13.699339
       230.00000       300.00000       2.3545605       13.764447
       230.00000       1000.0000       2.3507907       13.790894
       230.00000       3000.0000       2.3497136       13.798918
       230.00000       10000.000       2.3493366       13.801085
       230.00000       30000.000       2.3492289       13.801694
       230.00000       100000.00       2.3487712       13.801907
       240.00000    0.0010000000       2.3638732       13.787653
       240.00000    0.0030000000       2.3639495       13.788869
       240.00000     0.010000000       2.3639548       13.789039
       240.00000     0.030000000       2.3639751       13.789057
       240.00000      0.10000000       2.3639753       13.789058
       240.00000      0.30000000       2.3639753       13.789059
       240.00000       1.0000000       2.3639753       13.789060
       240.00000       3.0000000       2.3639753       13.789066
       240.00000       10.000000       2.3639755       13.789072
       240.00000       30.000000       2.3639557       13.789126
       240.00000       100.00000       2.3639359       13.789193
       240.00000       300.00000       2.3639362       13.789491
       240.00000       1000.0000       2.3541188       13.858459
       240.00000       3000.0000       2.3508230       13.883126
       240.00000       10000.000       2.3496694       13.889814
       240.00000       30000.000       2.3493399       13.891694
       240.00000       100000.00       2.3492245       13.892353
       250.00000    0.0010000000       2.3637941       13.862480
       250.00000    0.0030000000       2.3639051       13.866172
       250.00000     0.010000000       2.3639317       13.867074
       250.00000     0.030000000       2.3639547       13.867166
       250.00000      0.10000000       2.3639753       13.867178
       250.00000      0.30000000       2.3639753       13.867180
       250.00000       1.0000000       2.3639753       13.867181
       250.00000       3.0000000       2.3639755       13.867185
       250.00000       10.000000       2.3639755       13.867193
       250.00000       30.000000       2.3639557       13.867247
       250.00000       100.00000       2.3639359       13.867314
       250.00000       300.00000       2.3639362       13.867612
       250.00000       1000.0000       2.3630083       13.875665
       250.00000       3000.0000       2.3537861       13.944661
       250.00000       10000.000       2.3505584       13.963480
       250.00000       30000.000       2.3496362       13.968783
       250.00000       100000.00       2.3493134       13.970639
       260.00000    0.0010000000       2.3636593       13.924497
       260.00000    0.0030000000       2.3638097       13.929544
       260.00000     0.010000000       2.3639194       13.932538
       260.00000     0.030000000       2.3639329       13.932992
       260.00000      0.10000000       2.3639550       13.933047
       260.00000      0.30000000       2.3639754       13.933055
       260.00000       1.0000000       2.3639753       13.933057
       260.00000       3.0000000       2.3639753       13.933063
       260.00000       10.000000       2.3639757       13.933068
       260.00000       30.000000       2.3639555       13.933123
       260.00000       100.00000       2.3639359       13.933190
       260.00000       300.00000       2.3639362       13.933488
       260.00000       1000.0000       2.3639361       13.935174
       260.00000       3000.0000       2.3610954       13.968498
       260.00000       10000.000       2.3527511       14.017205
       260.00000       30000.000       2.3503671       14.030982
       260.00000       100000.00       2.3495327       14.035810
       260.00000       300000.00       2.3492943       14.037191
       270.00000    0.0010000000       2.3634810       13.978816
       270.00000    0.0030000000       2.3636891       13.982261
       270.00000     0.010000000       2.3638364       13.987458
       270.00000     0.030000000       2.3639062       13.989131
       270.00000      0.10000000       2.3639339       13.989386
       270.00000      0.30000000       2.3639548       13.989412
       270.00000       1.0000000       2.3639550       13.989415
       270.00000       3.0000000       2.3639753       13.989422
       270.00000       10.000000       2.3639753       13.989430
       270.00000       30.000000       2.3639555       13.989483
       270.00000       100.00000       2.3639359       13.989550
       270.00000       300.00000       2.3639362       13.989847
       270.00000       1000.0000       2.3639361       13.991533
       270.00000       3000.0000       2.3639361       14.008465
       270.00000       10000.000       2.3577918       14.044764
       270.00000       30000.000       2.3520473       14.078021
       270.00000       100000.00       2.3500368       14.089707
       270.00000       300000.00       2.3494623       14.093052
       275.00000    0.0010000000       2.3633616       14.004470
       275.00000    0.0030000000       2.3636396       14.006434
       275.00000     0.010000000       2.3637965       14.011864
       275.00000     0.030000000       2.3638980       14.014564
       275.00000      0.10000000       2.3639329       14.015076
       275.00000      0.30000000       2.3639346       14.015123
       275.00000       1.0000000       2.3639550       14.015131
       275.00000       3.0000000       2.3639751       14.015140
       275.00000       10.000000       2.3639753       14.015146
       275.00000       30.000000       2.3639555       14.015199
       275.00000       100.00000       2.3639358       14.015266
       275.00000       300.00000       2.3639362       14.015564
       275.00000       1000.0000       2.3639361       14.017249
       275.00000       3000.0000       2.3639361       14.034181
       275.00000       10000.000       2.3621307       14.045535
       275.00000       30000.000       2.3534937       14.095498
       275.00000       100000.00       2.3504707       14.113097
       275.00000       300000.00       2.3496069       14.118138
       280.00000    0.0010000000       2.3632149       14.029453
       280.00000    0.0030000000       2.3635562       14.029908
       280.00000     0.010000000       2.3637652       14.034832
       280.00000     0.030000000       2.3638630       14.038625
       280.00000      0.10000000       2.3639113       14.039575
       280.00000      0.30000000       2.3639343       14.039676
       280.00000       1.0000000       2.3639549       14.039690
       280.00000       3.0000000       2.3639552       14.039695
       280.00000       10.000000       2.3639551       14.039703
       280.00000       30.000000       2.3639553       14.039759
       280.00000       100.00000       2.3639358       14.039825
       280.00000       300.00000       2.3639362       14.040123
       280.00000       1000.0000       2.3639361       14.041808
       280.00000       3000.0000       2.3639361       14.058740
       280.00000       10000.000       2.3639361       14.059714
       280.00000       30000.000       2.3552307       14.110092
       280.00000       100000.00       2.3509917       14.134798
       280.00000       300000.00       2.3497807       14.141881
       290.00000    0.0010000000       2.3629739       14.075601
       290.00000    0.0030000000       2.3633257       14.074615
       290.00000     0.010000000       2.3636405       14.076936
       290.00000     0.030000000       2.3638032       14.081905
       290.00000      0.10000000       2.3638821       14.084495
       290.00000      0.30000000       2.3639131       14.084857
       290.00000       1.0000000       2.3639345       14.084904
       290.00000       3.0000000       2.3639552       14.084913
       290.00000       10.000000       2.3639551       14.084921
       290.00000       30.000000       2.3639555       14.084976
       290.00000       100.00000       2.3639357       14.085044
       290.00000       300.00000       2.3639358       14.085343
       290.00000       1000.0000       2.3639159       14.087024
       290.00000       3000.0000       2.3639361       14.103959
       290.00000       10000.000       2.3639361       14.104932
       290.00000       30000.000       2.3606731       14.123834
       290.00000       100000.00       2.3526245       14.170764
       290.00000       300000.00       2.3503249       14.184258
       300.00000    0.0010000000       2.3641430       14.109582
       300.00000    0.0030000000       2.3641545       14.110427
       300.00000     0.010000000       2.3642083       14.113000
       300.00000     0.030000000       2.3643206       14.117781
       300.00000      0.10000000       2.3644296       14.122486
       300.00000      0.30000000       2.3644503       14.123606
       300.00000       1.0000000       2.3644547       14.123760
       300.00000       3.0000000       2.3644551       14.123779
       300.00000       10.000000       2.3644551       14.123788
       300.00000       30.000000       2.3644551       14.123846
       300.00000       100.00000       2.3644550       14.123917
       300.00000       300.00000       2.3644550       14.124217
       300.00000       1000.0000       2.3644550       14.125901
       300.00000       3000.0000       2.3644550       14.142822
       300.00000       10000.000       2.3644550       14.143796
       300.00000       30000.000       2.3644550       14.143785
       300.00000       100000.00       2.3559740       14.193212
       300.00000       300000.00       2.3517903       14.217796
       310.00000    0.0010000000       2.3641399       14.140872
       310.00000    0.0030000000       2.3641383       14.141353
       310.00000     0.010000000       2.3641788       14.142912
       310.00000     0.030000000       2.3642433       14.146427
       310.00000      0.10000000       2.3643660       14.152149
       310.00000      0.30000000       2.3644400       14.154771
       310.00000       1.0000000       2.3644536       14.155249
       310.00000       3.0000000       2.3644549       14.155300
       310.00000       10.000000       2.3644552       14.155312
       310.00000       30.000000       2.3644550       14.155370
       310.00000       100.00000       2.3644550       14.155442
       310.00000       300.00000       2.3644550       14.155742
       310.00000       1000.0000       2.3644550       14.157425
       310.00000       3000.0000       2.3644550       14.174347
       310.00000       10000.000       2.3644550       14.175320
       310.00000       30000.000       2.3644550       14.175309
       310.00000       100000.00       2.3606828       14.197223
       310.00000       300000.00       2.3533600       14.240232
       320.00000    0.0010000000       2.3641376       14.166820
       320.00000    0.0030000000       2.3641426       14.167098
       320.00000     0.010000000       2.3641562       14.168032
       320.00000     0.030000000       2.3642028       14.170368
       320.00000      0.10000000       2.3643245       14.175595
       320.00000      0.30000000       2.3644275       14.179953
       320.00000       1.0000000       2.3644508       14.181225
       320.00000       3.0000000       2.3644546       14.181368
       320.00000       10.000000       2.3644552       14.181391
       320.00000       30.000000       2.3644550       14.181450
       320.00000       100.00000       2.3644550       14.181522
       320.00000       300.00000       2.3644550       14.181822
       320.00000       1000.0000       2.3644550       14.183505
       320.00000       3000.0000       2.3644550       14.200427
       320.00000       10000.000       2.3644550       14.201400
       320.00000       30000.000       2.3644550       14.201389
       320.00000       100000.00       2.3644550       14.201246
       320.00000       300000.00       2.3558870       14.251468
       330.00000    0.0010000000       2.3641366       14.189776
       330.00000    0.0030000000       2.3641398       14.189939
       330.00000     0.010000000       2.3641406       14.190506
       330.00000     0.030000000       2.3641790       14.192001
       330.00000      0.10000000       2.3642755       14.196022
       330.00000      0.30000000       2.3643666       14.201287
       330.00000       1.0000000       2.3644432       14.203990
       330.00000       3.0000000       2.3644537       14.204375
       330.00000       10.000000       2.3644551       14.204428
       330.00000       30.000000       2.3644551       14.204490
       330.00000       100.00000       2.3644550       14.204561
       330.00000       300.00000       2.3644550       14.204862
       330.00000       1000.0000       2.3644550       14.206545
       330.00000       3000.0000       2.3644550       14.223467
       330.00000       10000.000       2.3644550       14.224440
       330.00000       30000.000       2.3644550       14.224429
       330.00000       100000.00       2.3644550       14.224286
       330.00000       300000.00       2.3598307       14.251228
       340.00000    0.0010000000       2.3641360       14.210497
       340.00000    0.0030000000       2.3641378       14.210599
       340.00000     0.010000000       2.3641439       14.210947
       340.00000     0.030000000       2.3641587       14.211895
       340.00000      0.10000000       2.3642169       14.214729
       340.00000      0.30000000       2.3643208       14.219732
       340.00000       1.0000000       2.3644251       14.224127
       340.00000       3.0000000       2.3644513       14.225067
       340.00000       10.000000       2.3644548       14.225197
       340.00000       30.000000       2.3644550       14.225266
       340.00000       100.00000       2.3644550       14.225339
       340.00000       300.00000       2.3644550       14.225639
       340.00000       1000.0000       2.3644550       14.227322
       340.00000       3000.0000       2.3644550       14.244244
       340.00000       10000.000       2.3644550       14.245217
       340.00000       30000.000       2.3644550       14.245206
       340.00000       100000.00       2.3644550       14.245063
       340.00000       300000.00       2.3644550       14.244710
       350.00000    0.0010000000       2.3641357       14.228127
       350.00000    0.0030000000       2.3641368       14.228190
       350.00000     0.010000000       2.3641409       14.228407
       350.00000     0.030000000       2.3641436       14.229015
       350.00000      0.10000000       2.3641784       14.230940
       350.00000      0.30000000       2.3642858       14.235022
       350.00000       1.0000000       2.3643909       14.240574
       350.00000       3.0000000       2.3644456       14.242529
       350.00000       10.000000       2.3644542       14.242846
       350.00000       30.000000       2.3644550       14.242932
       350.00000       100.00000       2.3644551       14.243006
       350.00000       300.00000       2.3644550       14.243307
       350.00000       1000.0000       2.3644550       14.244990
       350.00000       3000.0000       2.3644550       14.261912
       350.00000       10000.000       2.3644550       14.262885
       350.00000       30000.000       2.3644550       14.262874
       350.00000       100000.00       2.3644550       14.262731
       350.00000       300000.00       2.3644550       14.262377
       375.00000    0.0010000000       2.3641353       14.258131
       375.00000    0.0030000000       2.3641357       14.258152
       375.00000     0.010000000       2.3641370       14.258227
       375.00000     0.030000000       2.3641410       14.258437
       375.00000      0.10000000       2.3641468       14.259155
       375.00000      0.30000000       2.3641794       14.261009
       375.00000       1.0000000       2.3642900       14.265650
       375.00000       3.0000000       2.3643922       14.270681
       375.00000       10.000000       2.3644476       14.272664
       375.00000       30.000000       2.3644543       14.272961
       375.00000       100.00000       2.3644550       14.273059
       375.00000       300.00000       2.3644551       14.273357
       375.00000       1000.0000       2.3644550       14.275011
       375.00000       3000.0000       2.3644550       14.291594
       375.00000       10000.000       2.3644550       14.292622
       375.00000       30000.000       2.3644550       14.292953
       375.00000       100000.00       2.3644550       14.292823
       375.00000       300000.00       2.3644550       14.292462
       400.00000    0.0010000000       2.3641343       14.278469
       400.00000    0.0030000000       2.3641344       14.278478
       400.00000     0.010000000       2.3641349       14.278506
       400.00000     0.030000000       2.3641363       14.278589
       400.00000      0.10000000       2.3641413       14.278872
       400.00000      0.30000000       2.3641501       14.279651
       400.00000       1.0000000       2.3641978       14.282056
       400.00000       3.0000000       2.3643088       14.286713
       400.00000       10.000000       2.3644247       14.291758
       400.00000       30.000000       2.3644482       14.293135
       400.00000       100.00000       2.3644535       14.293378
       400.00000       300.00000       2.3644539       14.293629
       400.00000       1000.0000       2.3644540       14.294897
       400.00000       3000.0000       2.3644539       14.307056
       400.00000       10000.000       2.3644539       14.308799
       400.00000       30000.000       2.3644539       14.313600
       400.00000       100000.00       2.3644539       14.313640
       400.00000       300000.00       2.3644539       14.313178
       425.00000    0.0010000000       2.3641342       14.291665
       425.00000    0.0030000000       2.3641343       14.291668
       425.00000     0.010000000       2.3641346       14.291679
       425.00000     0.030000000       2.3641352       14.291714
       425.00000      0.10000000       2.3641373       14.291837
       425.00000      0.30000000       2.3641434       14.292180
       425.00000       1.0000000       2.3641633       14.293317
       425.00000       3.0000000       2.3642178       14.296079
       425.00000       10.000000       2.3643385       14.301680
       425.00000       30.000000       2.3644257       14.305514
       425.00000       100.00000       2.3644511       14.306473
       425.00000       300.00000       2.3644538       14.306743
       425.00000       1000.0000       2.3644539       14.307645
       425.00000       3000.0000       2.3644540       14.315661
       425.00000       10000.000       2.3644539       14.318106
       425.00000       30000.000       2.3644539       14.327075
       425.00000       100000.00       2.3644539       14.327283
       425.00000       300000.00       2.3644539       14.326717
       450.00000    0.0010000000       2.3641327       14.299536
       450.00000    0.0030000000       2.3641340       14.299529
       450.00000     0.010000000       2.3641343       14.299533
       450.00000     0.030000000       2.3641347       14.299549
       450.00000      0.10000000       2.3641356       14.299607
       450.00000      0.30000000       2.3641386       14.299767
       450.00000       1.0000000       2.3641388       14.300317
       450.00000       3.0000000       2.3641766       14.301781
       450.00000       10.000000       2.3642714       14.305746
       450.00000       30.000000       2.3643614       14.311091
       450.00000       100.00000       2.3644411       14.313957
       450.00000       300.00000       2.3644524       14.314489
       450.00000       1000.0000       2.3644539       14.315069
       450.00000       3000.0000       2.3644540       14.319188
       450.00000       10000.000       2.3644540       14.322317
       450.00000       30000.000       2.3644539       14.335195
       450.00000       100000.00       2.3644539       14.335567
       450.00000       300000.00       2.3644539       14.334897
       475.00000    0.0010000000       2.3640852       14.304891
       475.00000    0.0030000000       2.3641312       14.304750
       475.00000     0.010000000       2.3641340       14.304736
       475.00000     0.030000000       2.3641344       14.304742
       475.00000      0.10000000       2.3641350       14.304770
       475.00000      0.30000000       2.3641363       14.304852
       475.00000       1.0000000       2.3641413       14.305132
       475.00000       3.0000000       2.3641497       14.305904
       475.00000       10.000000       2.3641968       14.308290
       475.00000       30.000000       2.3643071       14.312940
       475.00000       100.00000       2.3644241       14.318038
       475.00000       300.00000       2.3644482       14.319482
       475.00000       1000.0000       2.3644534       14.320017
       475.00000       3000.0000       2.3644539       14.322165
       475.00000       10000.000       2.3644540       14.325285
       475.00000       30000.000       2.3644539       14.338353
       475.00000       100000.00       2.3644539       14.341755
       475.00000       300000.00       2.3644539       14.341031
       500.00000    0.0010000000       2.3637425       14.312516
       500.00000    0.0030000000       2.3640687       14.311059
       500.00000     0.010000000       2.3641303       14.310849
       500.00000     0.030000000       2.3641339       14.310835
       500.00000      0.10000000       2.3641346       14.310847
       500.00000      0.30000000       2.3641354       14.310890
       500.00000       1.0000000       2.3641382       14.311040
       500.00000       3.0000000       2.3641344       14.311464
       500.00000       10.000000       2.3641727       14.312849
       500.00000       30.000000       2.3642245       14.316083
       500.00000       100.00000       2.3643621       14.321879
       500.00000       300.00000       2.3644343       14.325048
       500.00000       1000.0000       2.3644521       14.325868
       500.00000       3000.0000       2.3644537       14.326508
       500.00000       10000.000       2.3644540       14.329485
       500.00000       30000.000       2.3644540       14.342058
       500.00000       100000.00       2.3644539       14.349059
       500.00000       300000.00       2.3644539       14.348132
       575.00000    0.0010000000       2.3609860       14.355095
       575.00000    0.0030000000       2.3615122       14.353087
       575.00000     0.010000000       2.3627494       14.348256
       575.00000     0.030000000       2.3637756       14.344225
       575.00000      0.10000000       2.3640821       14.343047
       575.00000      0.30000000       2.3641311       14.342926
       575.00000       1.0000000       2.3641346       14.342943
       575.00000       3.0000000       2.3641365       14.343031
       575.00000       10.000000       2.3641420       14.343337
       575.00000       30.000000       2.3641527       14.344183
       575.00000       100.00000       2.3642049       14.346755
       575.00000       300.00000       2.3643175       14.351595
       575.00000       1000.0000       2.3644279       14.356532
       575.00000       3000.0000       2.3644490       14.357987
       575.00000       10000.000       2.3644535       14.359359
       575.00000       30000.000       2.3644540       14.364084
       575.00000       100000.00       2.3644540       14.384798
       575.00000       300000.00       2.3644539       14.400504
       650.00000    0.0010000000       2.3608362       14.385215
       650.00000    0.0030000000       2.3608407       14.385184
       650.00000     0.010000000       2.3609276       14.384919
       650.00000     0.030000000       2.3612807       14.383696
       650.00000      0.10000000       2.3623441       14.380115
       650.00000      0.30000000       2.3635749       14.376091
       650.00000       1.0000000       2.3640493       14.374466
       650.00000       3.0000000       2.3641274       14.374291
       650.00000       10.000000       2.3641359       14.374358
       650.00000       30.000000       2.3641409       14.374611
       650.00000       100.00000       2.3641511       14.375467
       650.00000       300.00000       2.3641918       14.377643
       650.00000       1000.0000       2.3643138       14.382758
       650.00000       3000.0000       2.3644214       14.387591
       650.00000       10000.000       2.3644486       14.389663
       650.00000       30000.000       2.3644534       14.391761
       650.00000       100000.00       2.3644540       14.406868
       650.00000       300000.00       2.3644540       14.499346
       725.00000    0.0010000000       2.3609627       14.437627
       725.00000    0.0030000000       2.3609628       14.437627
       725.00000     0.010000000       2.3608915       14.437621
       725.00000     0.030000000       2.3608577       14.437589
       725.00000      0.10000000       2.3609624       14.437279
       725.00000      0.30000000       2.3614033       14.435994
       725.00000       1.0000000       2.3625943       14.432633
       725.00000       3.0000000       2.3637101       14.429484
       725.00000       10.000000       2.3640758       14.428490
       725.00000       30.000000       2.3641327       14.428470
       725.00000       100.00000       2.3641419       14.428783
       725.00000       300.00000       2.3641545       14.429677
       725.00000       1000.0000       2.3642100       14.432393
       725.00000       3000.0000       2.3643221       14.437408
       725.00000       10000.000       2.3644190       14.442444
       725.00000       30000.000       2.3644495       14.444522
       725.00000       100000.00       2.3644536       14.452058
       725.00000       300000.00       2.3644540       14.515634
       800.00000    0.0010000000       2.3609636       14.523888
       800.00000    0.0030000000       2.3609636       14.523888
       800.00000     0.010000000       2.3609636       14.523888
       800.00000     0.030000000       2.3609642       14.523886
       800.00000      0.10000000       2.3609696       14.523880
       800.00000      0.30000000       2.3609973       14.523791
       800.00000       1.0000000       2.3611732       14.523186
       800.00000       3.0000000       2.3619060       14.521371
       800.00000       10.000000       2.3632874       14.518109
       800.00000       30.000000       2.3639870       14.516489
       800.00000       100.00000       2.3641240       14.516311
       800.00000       300.00000       2.3641437       14.516690
       800.00000       1000.0000       2.3641706       14.518033
       800.00000       3000.0000       2.3642178       14.521221
       800.00000       10000.000       2.3643577       14.527253
       800.00000       30000.000       2.3644322       14.531216
       800.00000       100000.00       2.3644519       14.534953
       800.00000       300000.00       2.3644541       14.548102
       900.00000    0.0010000000       2.3609646       14.642620
       900.00000    0.0030000000       2.3609645       14.642620
       900.00000     0.010000000       2.3609644       14.642620
       900.00000     0.030000000       2.3609643       14.642620
       900.00000      0.10000000       2.3609644       14.642619
       900.00000      0.30000000       2.3609656       14.642618
       900.00000       1.0000000       2.3609790       14.642604
       900.00000       3.0000000       2.3610615       14.642460
       900.00000       10.000000       2.3615041       14.641678
       900.00000       30.000000       2.3625203       14.639842
       900.00000       100.00000       2.3636940       14.637574
       900.00000       300.00000       2.3640769       14.637025
       900.00000       1000.0000       2.3641484       14.637503
       900.00000       3000.0000       2.3641788       14.639041
       900.00000       10000.000       2.3642745       14.643263
       900.00000       30000.000       2.3643655       14.649057
       900.00000       100000.00       2.3644450       14.653509
       900.00000       300000.00       2.3644603       14.659310
       1000.0000    0.0010000000       2.3609769       14.790811
       1000.0000    0.0030000000       2.3609786       14.790817
       1000.0000     0.010000000       2.3609771       14.790833
       1000.0000     0.030000000       2.3609744       14.790852
       1000.0000      0.10000000       2.3609713       14.790870
       1000.0000      0.30000000       2.3609690       14.790885
       1000.0000       1.0000000       2.3609678       14.790897
       1000.0000       3.0000000       2.3609730       14.790899
       1000.0000       10.000000       2.3610157       14.790842
       1000.0000       30.000000       2.3612724       14.790510
       1000.0000       100.00000       2.3621717       14.789349
       1000.0000       300.00000       2.3634484       14.787749
       1000.0000       1000.0000       2.3641500       14.787117
       1000.0000       3000.0000       2.3641927       14.787783
       1000.0000       10000.000       2.3642184       14.790256
       1000.0000       30000.000       2.3643238       14.795215
       1000.0000       100000.00       2.3644481       14.801479
       1000.0000       300000.00       2.3644804       14.806043
       1100.0000    0.0010000000       2.3610134       14.958554
       1100.0000    0.0030000000       2.3609872       14.958701
       1100.0000     0.010000000       2.3609721       14.958752
       1100.0000     0.030000000       2.3609810       14.958770
       1100.0000      0.10000000       2.3609833       14.958776
       1100.0000      0.30000000       2.3609829       14.958777
       1100.0000       1.0000000       2.3609818       14.958779
       1100.0000       3.0000000       2.3609819       14.958777
       1100.0000       10.000000       2.3609873       14.958777
       1100.0000       30.000000       2.3610161       14.958751
       1100.0000       100.00000       2.3612866       14.958560
       1100.0000       300.00000       2.3620452       14.957952
       1100.0000       1000.0000       2.3634443       14.956885
       1100.0000       3000.0000       2.3641512       14.956703
       1100.0000       10000.000       2.3643108       14.958056
       1100.0000       30000.000       2.3643592       14.961576
       1100.0000       100000.00       2.3644129       14.968286
       1100.0000       300000.00       2.3644785       14.973549
       1200.0000    0.0010000000       2.3658027       15.136457
       1200.0000    0.0030000000       2.3632319       15.140358
       1200.0000     0.010000000       2.3617032       15.143983
       1200.0000     0.030000000       2.3612253       15.145490
       1200.0000      0.10000000       2.3610468       15.146141
       1200.0000      0.30000000       2.3610010       15.146345
       1200.0000       1.0000000       2.3609767       15.146418
       1200.0000       3.0000000       2.3609856       15.146442
       1200.0000       10.000000       2.3609861       15.146451
       1200.0000       30.000000       2.3609907       15.146455
       1200.0000       100.00000       2.3610379       15.146440
       1200.0000       300.00000       2.3613190       15.146345
       1200.0000       1000.0000       2.3622596       15.145998
       1200.0000       3000.0000       2.3635204       15.145568
       1200.0000       10000.000       2.3642134       15.146315
       1200.0000       30000.000       2.3643549       15.148716
       1200.0000       100000.00       2.3644736       15.154593
       1200.0000       300000.00       2.3645547       15.160902
       1300.0000    0.0010000000       2.3667859       15.325398
       1300.0000    0.0030000000       2.3673800       15.325272
       1300.0000     0.010000000       2.3677357       15.325179
       1300.0000     0.030000000       2.3660669       15.329283
       1300.0000      0.10000000       2.3633932       15.336030
       1300.0000      0.30000000       2.3622323       15.339413
       1300.0000       1.0000000       2.3613982       15.342217
       1300.0000       3.0000000       2.3611239       15.343302
       1300.0000       10.000000       2.3610250       15.343745
       1300.0000       30.000000       2.3609887       15.343880
       1300.0000       100.00000       2.3609881       15.343937
       1300.0000       300.00000       2.3610631       15.343985
       1300.0000       1000.0000       2.3614926       15.344092
       1300.0000       3000.0000       2.3625116       15.344139
       1300.0000       10000.000       2.3638226       15.345096
       1300.0000       30000.000       2.3642545       15.346846
       1300.0000       100000.00       2.3644080       15.351592
       1300.0000       300000.00       2.3645384       15.358311
       1400.0000    0.0010000000       2.3626116       15.552186
       1400.0000    0.0030000000       2.3649192       15.552222
       1400.0000     0.010000000       2.3663596       15.552144
       1400.0000     0.030000000       2.3671468       15.552075
       1400.0000      0.10000000       2.3676164       15.552017
       1400.0000      0.30000000       2.3676899       15.551985
       1400.0000       1.0000000       2.3649399       15.556391
       1400.0000       3.0000000       2.3631876       15.562751
       1400.0000       10.000000       2.3622281       15.566246
       1400.0000       30.000000       2.3614501       15.569012
       1400.0000       100.00000       2.3611354       15.570337
       1400.0000       300.00000       2.3610409       15.570818
       1400.0000       1000.0000       2.3611803       15.571195
       1400.0000       3000.0000       2.3617449       15.571878
       1400.0000       10000.000       2.3630732       15.573517
       1400.0000       30000.000       2.3640560       15.575606
       1400.0000       100000.00       2.3643563       15.579557
       1400.0000       300000.00       2.3644931       15.586046
       1500.0000    0.0010000000       2.3488660       15.797388
       1500.0000    0.0030000000       2.3568486       15.798160
       1500.0000     0.010000000       2.3618922       15.798506
       1500.0000     0.030000000       2.3645243       15.798582
       1500.0000      0.10000000       2.3661952       15.798571
       1500.0000      0.30000000       2.3670491       15.798545
       1500.0000       1.0000000       2.3675980       15.798522
       1500.0000       3.0000000       2.3675987       15.798511
       1500.0000       10.000000       2.3658359       15.798496
       1500.0000       30.000000       2.3638802       15.805951
       1500.0000       100.00000       2.3628080       15.810891
       1500.0000       300.00000       2.3619472       15.814074
       1500.0000       1000.0000       2.3613354       15.816722
       1500.0000       3000.0000       2.3613941       15.818405
       1500.0000       10000.000       2.3623142       15.820987
       1500.0000       30000.000       2.3635929       15.824602
       1500.0000       100000.00       2.3642559       15.828881
       1500.0000       300000.00       2.3644581       15.834918
       1600.0000    0.0010000000       2.3103799       15.999997
       1600.0000    0.0030000000       2.3342709       16.002798
       1600.0000     0.010000000       2.3493378       16.004426
       1600.0000     0.030000000       2.3571737       16.005150
       1600.0000      0.10000000       2.3621102       16.005481
       1600.0000      0.30000000       2.3646763       16.005576
       1600.0000       1.0000000       2.3663009       16.005609
       1600.0000       3.0000000       2.3671155       16.005617
       1600.0000       10.000000       2.3676436       16.005617
       1600.0000       30.000000       2.3668876       16.005618
       1600.0000       100.00000       2.3656343       16.005613
       1600.0000       300.00000       2.3642649       16.010869
       1600.0000       1000.0000       2.3629393       16.017497
       1600.0000       3000.0000       2.3622940       16.021437
       1600.0000       10000.000       2.3619472       16.027670
       1600.0000       30000.000       2.3629645       16.033634
       1600.0000       100000.00       2.3640792       16.040304
       1600.0000       300000.00       2.3643942       16.046369
       1700.0000    0.0010000000       2.2193165       16.194780
       1700.0000    0.0030000000       2.2793520       16.203065
       1700.0000     0.010000000       2.3183866       16.207926
       1700.0000     0.030000000       2.3390027       16.210296
       1700.0000      0.10000000       2.3520132       16.211639
       1700.0000      0.30000000       2.3587995       16.212219
       1700.0000       1.0000000       2.3630279       16.212489
       1700.0000       3.0000000       2.3652522       16.212590
       1700.0000       10.000000       2.3666203       16.212646
       1700.0000       30.000000       2.3673124       16.212674
       1700.0000       100.00000       2.3677481       16.212691
       1700.0000       300.00000       2.3661027       16.212699
       1700.0000       1000.0000       2.3654230       16.212752
       1700.0000       3000.0000       2.3642172       16.218717
       1700.0000       10000.000       2.3632353       16.228489
       1700.0000       30000.000       2.3628744       16.240082
       1700.0000       100000.00       2.3638290       16.252121
       1700.0000       300000.00       2.3643429       16.259981
       1800.0000    0.0010000000       2.0429073       16.360095
       1800.0000    0.0030000000       2.1655651       16.383438
       1800.0000     0.010000000       2.2517213       16.396441
       1800.0000     0.030000000       2.2991373       16.402672
       1800.0000      0.10000000       2.3296400       16.406338
       1800.0000      0.30000000       2.3456842       16.408093
       1800.0000       1.0000000       2.3557561       16.409057
       1800.0000       3.0000000       2.3609951       16.409468
       1800.0000       10.000000       2.3642954       16.409685
       1800.0000       30.000000       2.3659829       16.409784
       1800.0000       100.00000       2.3670254       16.409836
       1800.0000       300.00000       2.3675735       16.409878
       1800.0000       1000.0000       2.3665003       16.409928
       1800.0000       3000.0000       2.3655894       16.410137
       1800.0000       10000.000       2.3654541       16.411670
       1800.0000       30000.000       2.3640661       16.430147
       1800.0000       100000.00       2.3641721       16.451094
       1800.0000       300000.00       2.3644221       16.465161
       1900.0000    0.0010000000       1.7838245       16.463828
       1900.0000    0.0030000000       1.9719884       16.530183
       1900.0000     0.010000000       2.1276128       16.564062
       1900.0000     0.030000000       2.2215588       16.579357
       1900.0000      0.10000000       2.2850419       16.588111
       1900.0000      0.30000000       2.3192335       16.592356
       1900.0000       1.0000000       2.3409797       16.594827
       1900.0000       3.0000000       2.3523741       16.595978
       1900.0000       10.000000       2.3595115       16.596606
       1900.0000       30.000000       2.3632154       16.596890
       1900.0000       100.00000       2.3655137       16.597050
       1900.0000       300.00000       2.3667041       16.597133
       1900.0000       1000.0000       2.3674411       16.597213
       1900.0000       3000.0000       2.3668474       16.597389
       1900.0000       10000.000       2.3656830       16.598526
       1900.0000       30000.000       2.3658262       16.604329
       1900.0000       100000.00       2.3651868       16.634200
       1900.0000       300000.00       2.3652669       16.658880
       2000.0000    0.0010000000       1.5297768       16.413774
       2000.0000    0.0030000000       1.7214482       16.608423
       2000.0000     0.010000000       1.9354125       16.697449
       2000.0000     0.030000000       2.0900114       16.734338
       2000.0000      0.10000000       2.2051042       16.754247
       2000.0000      0.30000000       2.2705837       16.763594
       2000.0000       1.0000000       2.3134180       16.769040
       2000.0000       3.0000000       2.3361466       16.771676
       2000.0000       10.000000       2.3504988       16.773174
       2000.0000       30.000000       2.3579545       16.773869
       2000.0000       100.00000       2.3626363       16.774263
       2000.0000       300.00000       2.3650580       16.774461
       2000.0000       1000.0000       2.3665402       16.774593
       2000.0000       3000.0000       2.3673125       16.774763
       2000.0000       10000.000       2.3668055       16.775644
       2000.0000       30000.000       2.3659283       16.780570
       2000.0000       100000.00       2.3666550       16.800470
       2000.0000       300000.00       2.3663686       16.838726
       2150.0000    0.0010000000       1.3406360       15.251874
       2150.0000    0.0030000000       1.4237700       16.336431
       2150.0000     0.010000000       1.5944327       16.758189
       2150.0000     0.030000000       1.7946437       16.899626
       2150.0000      0.10000000       1.9967000       16.966551
       2150.0000      0.30000000       2.1337901       16.995149
       2150.0000       1.0000000       2.2323907       17.010939
       2150.0000       3.0000000       2.2873940       17.018443
       2150.0000       10.000000       2.3230633       17.022824
       2150.0000       30.000000       2.3418648       17.024929
       2150.0000       100.00000       2.3537192       17.026144
       2150.0000       300.00000       2.3598821       17.026727
       2150.0000       1000.0000       2.3637175       17.027084
       2150.0000       3000.0000       2.3656713       17.027334
       2150.0000       10000.000       2.3668933       17.028010
       2150.0000       30000.000       2.3676498       17.031688
       2150.0000       100000.00       2.3666309       17.051447
       2150.0000       300000.00       2.3674977       17.091980
       2300.0000    0.0010000000       1.2976671       10.974810
       2300.0000    0.0030000000       1.3186819       14.385000
       2300.0000     0.010000000       1.3813000       16.224466
       2300.0000     0.030000000       1.5045966       16.845966
       2300.0000      0.10000000       1.7098071       17.085859
       2300.0000      0.30000000       1.9078028       17.172485
       2300.0000       1.0000000       2.0826197       17.215813
       2300.0000       3.0000000       2.1921896       17.235111
       2300.0000       10.000000       2.2677108       17.246058
       2300.0000       30.000000       2.3088878       17.251317
       2300.0000       100.00000       2.3352659       17.254386
       2300.0000       300.00000       2.3490882       17.255872
       2300.0000       1000.0000       2.3577434       17.256757
       2300.0000       3000.0000       2.3622217       17.257248
       2300.0000       10000.000       2.3650051       17.257921
       2300.0000       30000.000       2.3664813       17.260716
       2300.0000       100000.00       2.3677565       17.278607
       2300.0000       300000.00       2.3675437       17.327282
       2450.0000    0.0010000000       1.2887873       5.5861263
       2450.0000    0.0030000000       1.2941984       9.6848470
       2450.0000     0.010000000       1.3116886       13.919192
       2450.0000     0.030000000       1.3558946       16.048281
       2450.0000      0.10000000       1.4691263       16.971608
       2450.0000      0.30000000       1.6432952       17.261264
       2450.0000       1.0000000       1.8635303       17.381657
       2450.0000       3.0000000       2.0360601       17.429603
       2450.0000       10.000000       2.1705038       17.455062
       2450.0000       30.000000       2.2489650       17.466880
       2450.0000       100.00000       2.3010520       17.473721
       2450.0000       300.00000       2.3288764       17.477030
       2450.0000       1000.0000       2.3465256       17.478987
       2450.0000       3000.0000       2.3556887       17.479985
       2450.0000       10000.000       2.3614139       17.480869
       2450.0000       30000.000       2.3643727       17.483165
       2450.0000       100000.00       2.3664093       17.498606
       2450.0000       300000.00       2.3681752       17.551293
       2600.0000    0.0010000000       1.2860051       2.7903426
       2600.0000    0.0030000000       1.2878659       5.0535601
       2600.0000     0.010000000       1.2932782       9.4249121
       2600.0000     0.030000000       1.3072456       13.505599
       2600.0000      0.10000000       1.3504911       16.113867
       2600.0000      0.30000000       1.4447294       17.076603
       2600.0000       1.0000000       1.6269058       17.447012
       2600.0000       3.0000000       1.8284678       17.569327
       2600.0000       10.000000       2.0234726       17.627157
       2600.0000       30.000000       2.1523578       17.652255
       2600.0000       100.00000       2.2437699       17.666284
       2600.0000       300.00000       2.2944157       17.672990
       2600.0000       1000.0000       2.3271189       17.676918
       2600.0000       3000.0000       2.3443245       17.678874
       2600.0000       10000.000       2.3551157       17.680260
       2600.0000       30000.000       2.3607005       17.682387
       2600.0000       100000.00       2.3642722       17.695537
       2600.0000       300000.00       2.3666247       17.748949
       2800.0000    0.0010000000       1.2847070       1.6834546
       2800.0000    0.0030000000       1.2852982       2.3493633
       2800.0000     0.010000000       1.2867147       4.2955822
       2800.0000     0.030000000       1.2902602       7.8681913
       2800.0000      0.10000000       1.3014605       12.653473
       2800.0000      0.30000000       1.3302224       15.654382
       2800.0000       1.0000000       1.4110275       17.120489
       2800.0000       3.0000000       1.5559617       17.597613
       2800.0000       10.000000       1.7716967       17.781919
       2800.0000       30.000000       1.9619221       17.849060
       2800.0000       100.00000       2.1207930       17.883306
       2800.0000       300.00000       2.2172137       17.898868
       2800.0000       1000.0000       2.2825725       17.907796
       2800.0000       3000.0000       2.3178814       17.912133
       2800.0000       10000.000       2.3403587       17.914859
       2800.0000       30000.000       2.3520833       17.917270
       2800.0000       100000.00       2.3593984       17.928118
       2800.0000       300000.00       2.3634842       17.979188
       3000.0000    0.0010000000       1.2835230       1.4333803
       3000.0000    0.0030000000       1.2841720       1.6308491
       3000.0000     0.010000000       1.2848986       2.2778142
       3000.0000     0.030000000       1.2860477       3.8618854
       3000.0000      0.10000000       1.2893328       7.5394421
       3000.0000      0.30000000       1.2980092       12.007204
       3000.0000       1.0000000       1.3256024       15.624463
       3000.0000       3.0000000       1.3908283       17.161715
       3000.0000       10.000000       1.5381077       17.783584
       3000.0000       30.000000       1.7314164       17.978193
       3000.0000       100.00000       1.9442344       18.061472
       3000.0000       300.00000       2.0964840       18.095645
       3000.0000       1000.0000       2.2092487       18.114270
       3000.0000       3000.0000       2.2732273       18.123068
       3000.0000       10000.000       2.3150387       18.128314
       3000.0000       30000.000       2.3371686       18.131690
       3000.0000       100000.00       2.3510431       18.141237
       3000.0000       300000.00       2.3583489       18.188188
       3250.0000    0.0010000000       1.2802596       1.3681834
       3250.0000    0.0030000000       1.2818730       1.4212093
       3250.0000     0.010000000       1.2831478       1.5977973
       3250.0000     0.030000000       1.2840813       2.0715002
       3250.0000      0.10000000       1.2853374       3.5134341
       3250.0000      0.30000000       1.2877271       6.4814123
       3250.0000       1.0000000       1.2951208       11.343345
       3250.0000       3.0000000       1.3147048       15.104944
       3250.0000       10.000000       1.3731454       17.207679
       3250.0000       30.000000       1.4902508       17.936699
       3250.0000       100.00000       1.6912657       18.214971
       3250.0000       300.00000       1.8908301       18.307890
       3250.0000       1000.0000       2.0703416       18.352272
       3250.0000       3000.0000       2.1840364       18.371820
       3250.0000       10000.000       2.2628418       18.382927
       3250.0000       30000.000       2.3059273       18.388855
       3250.0000       100000.00       2.3334392       18.398235
       3250.0000       300000.00       2.3478340       18.439903
       3500.0000    0.0010000000       1.2741797       1.3681477
       3500.0000    0.0030000000       1.2765825       1.3883510
       3500.0000     0.010000000       1.2792995       1.4504547
       3500.0000     0.030000000       1.2813470       1.6111888
       3500.0000      0.10000000       1.2830707       2.1247893
       3500.0000      0.30000000       1.2845459       3.3995113
       3500.0000       1.0000000       1.2872734       6.5862191
       3500.0000       3.0000000       1.2936168       11.046203
       3500.0000       10.000000       1.3138933       15.290045
       3500.0000       30.000000       1.3640967       17.313806
       3500.0000       100.00000       1.4877560       18.177454
       3500.0000       300.00000       1.6687632       18.448503
       3500.0000       1000.0000       1.8879238       18.557276
       3500.0000       3000.0000       2.0546970       18.599067
       3500.0000       10000.000       2.1825068       18.621164
       3500.0000       30000.000       2.2564197       18.631888
       3500.0000       100000.00       2.3051287       18.642905
       3500.0000       300000.00       2.3309600       18.680667
       3750.0000    0.0010000000       1.2715148       1.4225183
       3750.0000    0.0030000000       1.2721855       1.4313348
       3750.0000     0.010000000       1.2738232       1.4598249
       3750.0000     0.030000000       1.2761781       1.5317084
       3750.0000      0.10000000       1.2790564       1.7489859
       3750.0000      0.30000000       1.2814224       2.2889609
       3750.0000       1.0000000       1.2838061       3.8517173
       3750.0000       3.0000000       1.2868254       6.9540115
       3750.0000       10.000000       1.2946678       11.883348
       3750.0000       30.000000       1.3146989       15.625847
       3750.0000       100.00000       1.3742116       17.707692
       3750.0000       300.00000       1.4929330       18.431448
       3750.0000       1000.0000       1.6951147       18.708634
       3750.0000       3000.0000       1.8943912       18.800050
       3750.0000       10000.000       2.0728230       18.842882
       3750.0000       30000.000       2.1855014       18.861948
       3750.0000       100000.00       2.2634464       18.876805
       3750.0000       300000.00       2.3058574       18.912671
       4000.0000    0.0010000000       1.2711856       1.6195367
       4000.0000    0.0030000000       1.2712720       1.6231449
       4000.0000     0.010000000       1.2715619       1.6356176
       4000.0000     0.030000000       1.2723068       1.6698949
       4000.0000      0.10000000       1.2740667       1.7795420
       4000.0000      0.30000000       1.2765799       2.0509701
       4000.0000       1.0000000       1.2797373       2.8350089
       4000.0000       3.0000000       1.2826907       4.5739652
       4000.0000       10.000000       1.2871625       8.3633253
       4000.0000       30.000000       1.2961271       12.856084
       4000.0000       100.00000       1.3233324       16.516916
       4000.0000       300.00000       1.3876589       18.102688
       4000.0000       1000.0000       1.5336426       18.755810
       4000.0000       3000.0000       1.7263651       18.960698
       4000.0000       10000.000       1.9398213       19.044812
       4000.0000       30000.000       2.0930537       19.078186
       4000.0000       100000.00       2.2066769       19.099751
       4000.0000       300000.00       2.2710631       19.135871
